Source File Name:	Scan
Signal:	FFT - Vib Velocity - Magnitude

Frequency	Magnitude
[ Hz ]	[ m/s ]
6.25	2.799818e-11
12.5	5.927234e-11
18.75	5.535308e-11
25	5.540302e-11
31.25	4.733041e-11
37.5	6.898043e-11
43.75	5.61954e-11
50	5.563147e-11
56.25	6.247154e-11
62.5	5.78964e-11
68.75	6.141648e-11
75	6.173288e-11
81.25	5.838374e-11
87.5	6.406987e-11
93.75	6.370226e-11
100	6.649588e-11
106.25	6.405699e-11
112.5	7.330129e-11
118.75	6.352535e-11
125	6.705804e-11
131.25	6.248593e-11
137.5	7.564729e-11
143.75	6.811876e-11
150	7.06963e-11
156.25	9.151666e-11
162.5	8.475198e-11
168.75	8.196119e-11
175	9.751339e-11
181.25	7.886368e-11
187.5	8.199259e-11
193.75	1.028506e-10
200	6.842769e-11
206.25	7.044221e-11
212.5	1.174564e-10
218.75	1.164017e-10
225	7.085636e-11
231.25	1.009438e-10
237.5	1.744795e-10
243.75	7.921749e-11
250	7.415858e-11
256.25	1.550016e-10
262.5	1.355239e-10
268.75	1.91562e-10
275	1.265052e-10
281.25	1.744178e-10
287.5	1.484388e-10
293.75	1.483365e-10
300	1.322172e-10
306.25	1.294681e-10
312.5	2.855825e-10
318.75	3.241707e-10
325	1.417186e-10
331.25	2.079571e-10
337.5	1.378766e-10
343.75	3.578715e-10
350	1.614257e-10
356.25	2.175348e-10
362.5	4.399623e-10
368.75	3.129204e-10
375	6.855493e-10
381.25	1.987316e-10
387.5	4.006131e-10
393.75	3.126659e-10
400	3.181413e-10
406.25	7.182536e-10
412.5	4.196661e-10
418.75	2.381347e-10
425	1.032492e-9
431.25	5.763329e-10
437.5	7.741705e-10
443.75	1.217269e-9
450	1.290264e-9
456.25	1.339711e-9
462.5	9.814234e-10
468.75	7.231452e-10
475	3.956316e-10
481.25	4.533772e-10
487.5	5.6864e-10
493.75	1.070648e-9
500	2.65783e-10
506.25	2.619264e-10
512.5	1.788809e-10
518.75	2.774638e-10
525	3.713402e-10
531.25	2.717692e-10
537.5	5.231512e-10
543.75	4.930049e-10
550	3.600852e-10
556.25	4.088047e-10
562.5	3.754478e-10
568.75	9.989483e-11
575	2.358054e-10
581.25	1.514843e-10
587.5	5.165596e-10
593.75	1.226075e-10
600	2.944968e-10
606.25	2.591623e-10
612.5	3.123825e-10
618.75	2.79459e-10
625	1.982636e-10
631.25	1.545567e-10
637.5	1.791128e-10
643.75	2.674503e-10
650	2.341945e-10
656.25	1.221462e-10
662.5	2.182196e-10
668.75	1.53242e-10
675	2.866675e-10
681.25	2.51602e-10
687.5	2.14627e-10
693.75	1.741155e-10
700	2.017754e-10
706.25	2.138318e-10
712.5	2.109972e-10
718.75	2.105395e-10
725	2.157031e-10
731.25	2.203403e-10
737.5	2.341084e-10
743.75	2.188314e-10
750	2.49778e-10
756.25	2.382002e-10
762.5	2.04067e-10
768.75	2.648227e-10
775	2.311256e-10
781.25	2.413674e-10
787.5	2.32052e-10
793.75	2.066458e-10
800	2.503233e-10
806.25	3.412333e-10
812.5	1.970528e-10
818.75	2.192676e-10
825	2.654009e-10
831.25	3.083603e-10
837.5	3.022793e-10
843.75	3.068539e-10
850	2.84451e-10
856.25	3.26207e-10
862.5	3.1467e-10
868.75	3.009287e-10
875	3.059973e-10
881.25	3.173401e-10
887.5	3.266507e-10
893.75	3.302749e-10
900	3.600081e-10
906.25	3.27699e-10
912.5	4.003901e-10
918.75	3.503239e-10
925	3.192026e-10
931.25	2.858769e-10
937.5	3.471964e-10
943.75	3.250792e-10
950	1.976648e-10
956.25	5.94732e-11
962.5	6.638696e-10
968.75	3.004895e-10
975	3.908244e-10
981.25	3.685668e-10
987.5	6.343841e-10
993.75	4.657839e-10
1000	3.693302e-10
1006.25	6.804075e-10
1012.5	7.697128e-10
1018.75	1.472896e-10
1025	4.556642e-10
1031.25	8.231155e-10
1037.5	6.328421e-10
1043.75	2.245645e-10
1050	2.73061e-10
1056.25	6.714988e-10
1062.5	7.691448e-10
1068.75	1.050349e-9
1075	2.497642e-11
1081.25	5.679761e-10
1087.5	1.164219e-10
1093.75	1.243442e-9
1100	8.682849e-10
1106.25	1.686552e-9
1112.5	1.464708e-9
1118.75	9.354505e-10
1125	1.379572e-9
1131.25	8.423677e-10
1137.5	1.144794e-9
1143.75	1.681197e-9
1150	1.221878e-9
1156.25	1.15719e-9
1162.5	1.754048e-9
1168.75	3.079677e-9
1175	1.52823e-9
1181.25	2.030838e-9
1187.5	6.418951e-10
1193.75	1.421449e-9
1200	7.748223e-10
1206.25	2.387062e-9
1212.5	1.215981e-9
1218.75	2.971415e-9
1225	3.196596e-10
1231.25	4.078752e-10
1237.5	1.573156e-9
1243.75	3.021973e-9
1250	3.693164e-9
1256.25	2.706894e-9
1262.5	2.537177e-9
1268.75	1.154671e-9
1275	3.922764e-9
1281.25	2.56265e-9
1287.5	2.272365e-9
1293.75	1.608903e-9
1300	2.400362e-9
1306.25	2.927701e-9
1312.5	9.742106e-10
1318.75	5.034863e-9
1325	3.310358e-9
1331.25	1.060242e-9
1337.5	1.603521e-9
1343.75	3.60537e-9
1350	5.775187e-9
1356.25	6.262016e-9
1362.5	2.781018e-9
1368.75	5.310081e-9
1375	4.609995e-9
1381.25	6.770183e-9
1387.5	4.814259e-9
1393.75	7.477207e-9
1400	1.352094e-9
1406.25	5.470093e-9
1412.5	2.752745e-9
1418.75	5.688642e-9
1425	2.637863e-9
1431.25	1.094449e-8
1437.5	8.482306e-9
1443.75	7.371753e-9
1450	8.717397e-9
1456.25	9.159654e-9
1462.5	4.751838e-9
1468.75	7.204529e-9
1475	9.666214e-9
1481.25	4.708113e-9
1487.5	1.074151e-8
1493.75	8.123095e-9
1500	8.323623e-9
1506.25	1.003983e-8
1512.5	6.105809e-9
1518.75	4.447912e-9
1525	6.184641e-9
1531.25	1.257967e-8
1537.5	5.784943e-9
1543.75	2.433742e-9
1550	3.928469e-9
1556.25	2.946984e-9
1562.5	4.599314e-9
1568.75	9.108637e-9
1575	4.652726e-9
1581.25	1.27989e-8
1587.5	3.049467e-9
1593.75	5.261954e-9
1600	2.42175e-9
1606.25	4.63903e-9
1612.5	4.117623e-9
1618.75	7.093186e-9
1625	5.299202e-9
1631.25	1.58947e-8
1637.5	1.300218e-8
1643.75	3.59315e-9
1650	2.106235e-9
1656.25	1.034319e-8
1662.5	5.572169e-9
1668.75	4.422072e-9
1675	7.99078e-9
1681.25	2.644725e-9
1687.5	1.560599e-8
1693.75	1.689324e-9
1700	5.804378e-9
1706.25	1.236594e-8
1712.5	1.243028e-8
1718.75	9.230464e-9
1725	1.678374e-9
1731.25	1.093921e-8
1737.5	6.594117e-9
1743.75	1.933462e-8
1750	1.623392e-9
1756.25	2.349713e-9
1762.5	8.317784e-9
1768.75	6.606765e-9
1775	5.76795e-9
1781.25	6.241534e-9
1787.5	1.756563e-8
1793.75	6.916142e-9
1800	7.893295e-9
1806.25	9.878725e-9
1812.5	1.939674e-8
1818.75	7.784927e-9
1825	1.974164e-8
1831.25	2.665644e-8
1837.5	3.211071e-8
1843.75	9.217124e-9
1850	1.067868e-9
1856.25	5.433857e-9
1862.5	2.308767e-8
1868.75	1.675154e-8
1875	8.372066e-9
1881.25	2.430103e-8
1887.5	9.842419e-9
1893.75	6.847746e-9
1900	7.271714e-9
1906.25	2.455376e-8
1912.5	2.056805e-8
1918.75	1.080259e-8
1925	9.386297e-9
1931.25	9.101416e-9
1937.5	1.295056e-8
1943.75	1.215262e-8
1950	1.915986e-8
1956.25	2.197688e-8
1962.5	6.251874e-9
1968.75	1.635835e-8
1975	1.561994e-8
1981.25	2.034639e-8
1987.5	6.3724e-9
1993.75	1.177109e-8
2000	7.827255e-9
2006.25	4.827169e-9
2012.5	1.739741e-8
2018.75	1.136458e-8
2025	4.254951e-9
2031.25	3.531947e-9
2037.5	2.008326e-8
2043.75	6.159283e-9
2050	7.783792e-9
2056.25	2.801934e-8
2062.5	4.333677e-9
2068.75	2.845218e-8
2075	2.710591e-8
2081.25	3.054297e-8
2087.5	9.511357e-9
2093.75	8.371027e-9
2100	7.063271e-9
2106.25	1.573399e-8
2112.5	8.402224e-9
2118.75	1.895149e-8
2125	2.629517e-8
2131.25	1.004109e-8
2137.5	2.265659e-8
2143.75	3.532323e-8
2150	3.311403e-8
2156.25	6.746971e-9
2162.5	1.649129e-8
2168.75	9.412465e-9
2175	3.246338e-8
2181.25	1.165676e-8
2187.5	2.075042e-8
2193.75	1.594878e-8
2200	2.006709e-8
2206.25	5.514218e-9
2212.5	1.202791e-8
2218.75	3.674415e-9
2225	8.864756e-9
2231.25	2.512401e-8
2237.5	5.371424e-9
2243.75	1.601861e-8
2250	2.781065e-8
2256.25	2.55906e-8
2262.5	2.883557e-8
2268.75	2.7939e-8
2275	1.104824e-8
2281.25	2.208371e-8
2287.5	2.398468e-8
2293.75	1.771677e-8
2300	1.775973e-8
2306.25	3.607136e-8
2312.5	1.115791e-8
2318.75	3.553493e-8
2325	2.228552e-8
2331.25	2.659964e-8
2337.5	8.524837e-9
2343.75	1.266045e-8
2350	4.897005e-8
2356.25	6.730621e-8
2362.5	8.905932e-8
2368.75	5.515226e-8
2375	1.993518e-8
2381.25	7.883716e-9
2387.5	4.671497e-8
2393.75	1.160399e-8
2400	9.095849e-9
2406.25	1.007216e-7
2412.5	2.52183e-8
2418.75	3.036392e-8
2425	1.616345e-8
2431.25	2.426716e-8
2437.5	3.989985e-8
2443.75	3.79647e-8
2450	2.455493e-8
2456.25	3.162457e-8
2462.5	2.383954e-8
2468.75	2.850637e-9
2475	2.746118e-8
2481.25	9.944985e-9
2487.5	6.57337e-9
2493.75	1.379072e-8
2500	1.050477e-8
2506.25	9.788049e-9
2512.5	6.902004e-9
2518.75	2.300339e-8
2525	1.812787e-8
2531.25	1.831443e-8
2537.5	1.712882e-8
2543.75	1.261195e-8
2550	2.59032e-8
2556.25	2.660151e-8
2562.5	2.32976e-8
2568.75	7.578616e-9
2575	1.959475e-8
2581.25	2.151581e-8
2587.5	1.371057e-8
2593.75	9.640194e-9
2600	1.568977e-8
2606.25	1.819069e-8
2612.5	2.178149e-8
2618.75	2.948428e-8
2625	6.097963e-9
2631.25	2.704169e-8
2637.5	2.540669e-8
2643.75	3.018225e-8
2650	1.58763e-8
2656.25	2.957298e-8
2662.5	1.953625e-8
2668.75	1.990209e-8
2675	9.47968e-9
2681.25	1.334409e-8
2687.5	2.329271e-8
2693.75	7.264445e-9
2700	7.736014e-9
2706.25	2.352199e-8
2712.5	2.535313e-8
2718.75	1.237478e-8
2725	6.628817e-9
2731.25	1.596981e-8
2737.5	1.995963e-8
2743.75	6.821573e-9
2750	2.93645e-8
2756.25	1.343569e-8
2762.5	3.575066e-8
2768.75	3.492981e-8
2775	2.955525e-8
2781.25	5.462173e-9
2787.5	1.113801e-8
2793.75	2.038374e-8
2800	1.655948e-8
2806.25	1.115727e-8
2812.5	4.484636e-9
2818.75	4.773472e-8
2825	9.404974e-9
2831.25	7.832828e-9
2837.5	3.288587e-8
2843.75	3.398802e-8
2850	2.348636e-8
2856.25	6.623429e-9
2862.5	2.153496e-8
2868.75	2.351336e-8
2875	5.751819e-9
2881.25	2.329629e-8
2887.5	3.413087e-9
2893.75	2.571667e-8
2900	1.425076e-8
2906.25	1.299092e-8
2912.5	2.657367e-9
2918.75	5.263814e-9
2925	4.154914e-9
2931.25	6.872213e-9
2937.5	1.689175e-8
2943.75	1.820128e-8
2950	1.482186e-8
2956.25	1.050754e-8
2962.5	6.759316e-9
2968.75	2.542648e-8
2975	7.99846e-9
2981.25	1.873955e-8
2987.5	1.492421e-8
2993.75	2.124055e-8
3000	4.981526e-9
3006.25	9.212642e-9
3012.5	2.238597e-9
3018.75	2.208697e-8
3025	2.223916e-8
3031.25	1.431759e-8
3037.5	7.184898e-9
3043.75	1.977209e-9
3050	2.286109e-8
3056.25	1.062494e-8
3062.5	1.554628e-9
3068.75	1.200575e-8
3075	1.529063e-8
3081.25	1.493059e-8
3087.5	1.045058e-8
3093.75	1.65436e-8
3100	1.005314e-8
3106.25	3.414712e-9
3112.5	4.127399e-9
3118.75	1.558321e-8
3125	2.063918e-8
3131.25	2.218472e-9
3137.5	7.299085e-9
3143.75	3.20361e-9
3150	1.957906e-8
3156.25	7.331093e-9
3162.5	1.849045e-8
3168.75	2.35494e-8
3175	1.748527e-9
3181.25	1.607233e-8
3187.5	6.25394e-9
3193.75	4.436495e-9
3200	1.03475e-8
3206.25	2.61177e-8
3212.5	1.710347e-8
3218.75	2.176625e-8
3225	1.953104e-8
3231.25	1.988211e-8
3237.5	1.162777e-8
3243.75	3.130674e-8
3250	1.050618e-8
3256.25	9.410503e-9
3262.5	8.58088e-9
3268.75	6.876357e-9
3275	2.553917e-8
3281.25	3.041572e-8
3287.5	2.242612e-8
3293.75	1.052472e-8
3300	9.77864e-9
3306.25	8.274808e-9
3312.5	1.788078e-8
3318.75	8.484488e-9
3325	1.773598e-8
3331.25	8.150391e-9
3337.5	2.204573e-8
3343.75	1.781751e-8
3350	2.025375e-8
3356.25	9.383327e-9
3362.5	2.456653e-8
3368.75	9.333681e-9
3375	1.099794e-8
3381.25	8.380699e-9
3387.5	1.052392e-8
3393.75	6.797317e-9
3400	1.07878e-8
3406.25	1.440243e-8
3412.5	7.800629e-9
3418.75	1.338014e-8
3425	2.761618e-9
3431.25	1.083271e-9
3437.5	1.624947e-8
3443.75	1.599188e-8
3450	6.500444e-9
3456.25	6.207518e-9
3462.5	2.345653e-8
3468.75	1.144332e-8
3475	1.495571e-8
3481.25	8.719637e-9
3487.5	1.450344e-8
3493.75	1.178654e-8
3500	1.135282e-8
3506.25	1.845657e-8
3512.5	1.96378e-8
3518.75	1.349562e-8
3525	1.384754e-8
3531.25	5.675637e-9
3537.5	8.668025e-9
3543.75	9.363262e-9
3550	9.576918e-9
3556.25	1.752681e-8
3562.5	7.303791e-9
3568.75	1.236689e-8
3575	1.280177e-8
3581.25	1.635923e-8
3587.5	7.850951e-9
3593.75	6.268043e-9
3600	3.850062e-9
3606.25	1.512019e-8
3612.5	9.09477e-9
3618.75	7.388699e-9
3625	1.29604e-8
3631.25	8.280076e-9
3637.5	9.176157e-9
3643.75	1.009472e-9
3650	8.379811e-9
3656.25	1.477554e-8
3662.5	8.650394e-9
3668.75	1.423528e-8
3675	1.40222e-8
3681.25	1.332131e-8
3687.5	4.434322e-9
3693.75	4.261893e-9
3700	1.683965e-8
3706.25	9.363942e-9
3712.5	8.812011e-9
3718.75	1.278454e-8
3725	2.329189e-8
3731.25	3.930919e-9
3737.5	1.188018e-8
3743.75	7.332059e-9
3750	9.21135e-9
3756.25	1.224568e-8
3762.5	4.832222e-9
3768.75	2.874478e-9
3775	6.705584e-9
3781.25	1.157532e-8
3787.5	4.298406e-9
3793.75	7.514653e-9
3800	3.520153e-9
3806.25	9.613276e-9
3812.5	5.719756e-9
3818.75	1.033456e-8
3825	7.95463e-9
3831.25	1.455868e-9
3837.5	4.374478e-9
3843.75	1.47146e-8
3850	3.479979e-9
3856.25	1.352748e-8
3862.5	7.72696e-9
3868.75	5.70054e-9
3875	7.815818e-9
3881.25	6.511092e-9
3887.5	1.229306e-8
3893.75	1.370543e-8
3900	1.137526e-8
3906.25	1.253163e-8
3912.5	9.437282e-9
3918.75	2.355638e-9
3925	6.145477e-9
3931.25	1.773722e-9
3937.5	2.810334e-9
3943.75	9.945199e-9
3950	1.231623e-9
3956.25	1.308416e-8
3962.5	1.4249e-8
3968.75	3.137764e-9
3975	3.34351e-9
3981.25	1.810687e-9
3987.5	3.609415e-9
3993.75	8.447467e-9
4000	1.469557e-8
4006.25	6.344403e-9
4012.5	6.141779e-9
4018.75	4.350938e-9
4025	1.957849e-8
4031.25	9.316452e-9
4037.5	7.934655e-9
4043.75	1.207378e-8
4050	2.542443e-9
4056.25	5.835114e-9
4062.5	7.797476e-10
4068.75	7.853161e-9
4075	6.13674e-9
4081.25	1.37096e-8
4087.5	9.317838e-9
4093.75	6.217983e-9
4100	1.212766e-8
4106.25	5.190071e-9
4112.5	1.726329e-9
4118.75	1.370851e-9
4125	3.140485e-9
4131.25	1.011678e-8
4137.5	3.546017e-9
4143.75	8.274458e-9
4150	4.301855e-9
4156.25	3.55166e-9
4162.5	6.873373e-9
4168.75	3.707306e-9
4175	1.294746e-8
4181.25	1.181714e-8
4187.5	9.820429e-9
4193.75	4.279633e-9
4200	5.839754e-9
4206.25	6.158616e-9
4212.5	6.472975e-9
4218.75	9.718183e-10
4225	1.498134e-8
4231.25	7.917428e-9
4237.5	1.108835e-8
4243.75	1.465613e-8
4250	9.408324e-9
4256.25	1.570552e-8
4262.5	4.000253e-9
4268.75	1.228297e-8
4275	5.081508e-9
4281.25	6.240456e-9
4287.5	6.030263e-9
4293.75	9.546641e-9
4300	6.161053e-9
4306.25	1.185451e-8
4312.5	9.70087e-9
4318.75	1.217217e-8
4325	7.374968e-9
4331.25	5.167489e-9
4337.5	9.841449e-9
4343.75	1.399631e-8
4350	1.366982e-9
4356.25	1.347773e-8
4362.5	8.595316e-10
4368.75	9.102975e-9
4375	5.48278e-9
4381.25	7.824658e-9
4387.5	7.199633e-9
4393.75	9.774213e-9
4400	5.066723e-9
4406.25	5.400735e-9
4412.5	8.961658e-9
4418.75	1.48637e-8
4425	5.661646e-9
4431.25	7.471359e-10
4437.5	1.394507e-8
4443.75	4.556671e-9
4450	2.816003e-9
4456.25	3.082268e-9
4462.5	7.61063e-9
4468.75	3.831331e-9
4475	6.425688e-9
4481.25	2.201018e-9
4487.5	8.628056e-9
4493.75	4.358369e-9
4500	6.855749e-9
4506.25	1.413159e-8
4512.5	8.010788e-9
4518.75	8.072338e-9
4525	1.110469e-8
4531.25	1.102902e-8
4537.5	2.808365e-9
4543.75	1.443154e-8
4550	8.141031e-9
4556.25	6.516739e-9
4562.5	4.986792e-9
4568.75	5.019165e-9
4575	3.65522e-9
4581.25	8.516782e-9
4587.5	1.074618e-8
4593.75	4.398215e-9
4600	1.085392e-8
4606.25	7.971972e-9
4612.5	8.646981e-9
4618.75	3.745776e-9
4625	2.560664e-9
4631.25	9.983127e-9
4637.5	8.354e-9
4643.75	1.679882e-8
4650	3.465826e-9
4656.25	3.623098e-9
4662.5	6.440037e-9
4668.75	2.180704e-9
4675	9.408489e-9
4681.25	1.114046e-8
4687.5	1.269081e-8
4693.75	3.392117e-9
4700	3.817848e-9
4706.25	9.615067e-9
4712.5	6.598376e-9
4718.75	5.83322e-9
4725	1.030326e-8
4731.25	3.740335e-9
4737.5	3.10572e-9
4743.75	7.567051e-9
4750	2.587364e-9
4756.25	6.579515e-9
4762.5	1.545903e-9
4768.75	9.738343e-10
4775	9.101953e-9
4781.25	1.051074e-8
4787.5	1.206029e-8
4793.75	1.079951e-8
4800	3.895253e-9
4806.25	6.98503e-9
4812.5	7.651105e-9
4818.75	4.322432e-9
4825	7.776269e-9
4831.25	7.314917e-9
4837.5	1.135659e-8
4843.75	4.888308e-9
4850	3.368207e-9
4856.25	4.495946e-9
4862.5	8.607908e-9
4868.75	1.296313e-9
4875	3.998495e-9
4881.25	6.515342e-9
4887.5	1.145127e-8
4893.75	7.445628e-9
4900	1.185153e-8
4906.25	1.987023e-9
4912.5	1.756852e-9
4918.75	1.255735e-9
4925	8.813378e-9
4931.25	7.145507e-9
4937.5	5.856094e-9
4943.75	2.65555e-9
4950	4.640483e-9
4956.25	3.962652e-9
4962.5	8.093302e-9
4968.75	3.577218e-9
4975	3.780777e-9
4981.25	9.057637e-9
4987.5	4.962041e-9
4993.75	1.714316e-8
5000	1.646802e-8
5006.25	1.210734e-8
5012.5	9.42661e-9
5018.75	1.35749e-8
5025	6.517619e-9
5031.25	7.89227e-9
5037.5	5.539283e-9
5043.75	6.321619e-9
5050	1.582069e-9
5056.25	4.440015e-9
5062.5	7.87545e-9
5068.75	6.871467e-9
5075	1.254556e-8
5081.25	3.575029e-9
5087.5	9.029553e-9
5093.75	2.137341e-9
5100	7.896989e-9
5106.25	4.181798e-9
5112.5	3.954235e-9
5118.75	6.159875e-9
5125	8.95121e-9
5131.25	1.073578e-8
5137.5	1.261837e-8
5143.75	2.585798e-9
5150	8.631384e-9
5156.25	3.871209e-9
5162.5	1.3668e-8
5168.75	7.864212e-9
5175	9.556355e-9
5181.25	9.042689e-9
5187.5	7.958947e-9
5193.75	8.863657e-9
5200	2.459065e-9
5206.25	1.10274e-9
5212.5	2.365943e-9
5218.75	6.744264e-9
5225	5.932274e-9
5231.25	6.436721e-9
5237.5	6.533979e-9
5243.75	1.542891e-8
5250	3.56054e-9
5256.25	7.93415e-9
5262.5	1.048958e-8
5268.75	7.886655e-9
5275	4.268507e-9
5281.25	5.223046e-9
5287.5	1.216341e-9
5293.75	3.75491e-9
5300	1.669584e-8
5306.25	6.789163e-9
5312.5	1.096264e-8
5318.75	6.050894e-9
5325	5.471597e-9
5331.25	1.353219e-9
5337.5	1.113126e-8
5343.75	1.882908e-9
5350	4.952503e-9
5356.25	1.128939e-9
5362.5	4.744678e-9
5368.75	1.161904e-8
5375	1.316785e-8
5381.25	6.747789e-9
5387.5	1.63296e-9
5393.75	5.809682e-9
5400	2.85574e-9
5406.25	8.128869e-9
5412.5	5.027417e-10
5418.75	2.728312e-9
5425	8.962775e-9
5431.25	9.60668e-9
5437.5	6.17781e-9
5443.75	2.032459e-8
5450	1.217233e-8
5456.25	5.908098e-9
5462.5	4.181507e-9
5468.75	5.415123e-9
5475	1.061459e-8
5481.25	8.523899e-9
5487.5	9.649256e-9
5493.75	1.22858e-8
5500	2.193632e-9
5506.25	6.833941e-9
5512.5	6.066681e-9
5518.75	6.855214e-9
5525	3.494184e-9
5531.25	8.509582e-9
5537.5	3.466705e-9
5543.75	7.324636e-9
5550	8.043591e-10
5556.25	3.57432e-9
5562.5	3.058148e-9
5568.75	2.769571e-9
5575	5.420837e-9
5581.25	2.271322e-9
5587.5	6.924145e-9
5593.75	9.412471e-9
5600	7.123218e-9
5606.25	4.440084e-9
5612.5	7.696447e-9
5618.75	1.028175e-8
5625	5.129103e-9
5631.25	3.162574e-9
5637.5	3.442895e-9
5643.75	6.390206e-9
5650	6.931486e-10
5656.25	5.002685e-9
5662.5	7.463209e-9
5668.75	9.523546e-9
5675	5.255157e-9
5681.25	6.618545e-9
5687.5	5.064315e-9
5693.75	5.334729e-9
5700	3.563319e-9
5706.25	4.411742e-9
5712.5	7.792567e-9
5718.75	9.692162e-10
5725	9.694611e-9
5731.25	6.640704e-9
5737.5	3.098519e-9
5743.75	6.448808e-9
5750	8.366691e-9
5756.25	4.118893e-9
5762.5	4.050158e-9
5768.75	5.36069e-9
5775	6.24605e-9
5781.25	9.626881e-9
5787.5	8.199907e-9
5793.75	5.559507e-9
5800	7.770247e-9
5806.25	8.300113e-9
5812.5	5.816411e-9
5818.75	7.559977e-9
5825	7.942999e-9
5831.25	8.518644e-9
5837.5	6.968583e-9
5843.75	8.977847e-9
5850	7.441594e-9
5856.25	1.257964e-9
5862.5	3.621453e-9
5868.75	7.904207e-9
5875	6.177399e-9
5881.25	5.817303e-9
5887.5	3.921943e-9
5893.75	1.361924e-9
5900	4.968616e-9
5906.25	4.935201e-9
5912.5	4.24501e-9
5918.75	9.044693e-9
5925	2.418816e-9
5931.25	2.80045e-9
5937.5	4.284291e-9
5943.75	6.688531e-9
5950	5.261079e-9
5956.25	5.604055e-9
5962.5	1.424296e-9
5968.75	1.891264e-9
5975	4.952214e-9
5981.25	4.115758e-9
5987.5	6.837124e-9
5993.75	5.324512e-9
6000	3.911049e-9
6006.25	1.707717e-9
6012.5	2.554809e-10
6018.75	7.970994e-10
6025	3.937103e-9
6031.25	4.330739e-9
6037.5	2.47303e-9
6043.75	2.107255e-9
6050	4.678769e-9
6056.25	5.932613e-9
6062.5	2.130038e-9
6068.75	2.792491e-9
6075	1.856782e-9
6081.25	2.881571e-9
6087.5	2.847723e-9
6093.75	3.652851e-9
6100	4.456351e-9
6106.25	2.725628e-9
6112.5	2.782414e-9
6118.75	4.084575e-9
6125	6.400758e-9
6131.25	1.217472e-9
6137.5	2.574664e-9
6143.75	5.572134e-9
6150	3.534772e-9
6156.25	2.615992e-9
6162.5	3.408891e-9
6168.75	6.778966e-9
6175	4.155815e-9
6181.25	3.246132e-9
6187.5	1.23201e-9
6193.75	1.9358e-9
6200	4.545645e-10
6206.25	2.019591e-9
6212.5	3.80442e-9
6218.75	2.913568e-9
6225	3.456355e-9
6231.25	1.560344e-9
6237.5	1.181482e-9
6243.75	2.899888e-9
6250	4.762972e-9
6256.25	2.823614e-9
6262.5	1.117261e-9
6268.75	2.392008e-9
6275	5.888066e-10
6281.25	1.463041e-9
6287.5	2.424344e-9
6293.75	6.933347e-10
6300	1.028744e-9
6306.25	1.679549e-9
6312.5	1.303679e-9
6318.75	6.87493e-10
6325	1.520869e-9
6331.25	2.068662e-9
6337.5	1.333126e-9
6343.75	2.108759e-9
6350	1.488168e-9
6356.25	1.876369e-9
6362.5	1.010033e-9
6368.75	2.145794e-9
6375	1.113807e-9
6381.25	1.051072e-9
6387.5	8.101554e-10
6393.75	2.0365e-9
6400	1.704405e-9
6406.25	9.686233e-10
6412.5	1.995698e-9
6418.75	1.053363e-10
6425	2.89723e-9
6431.25	6.139021e-10
6437.5	1.809649e-9
6443.75	1.459769e-9
6450	1.032427e-9
6456.25	2.333095e-9
6462.5	1.352061e-9
6468.75	1.480453e-9
6475	1.353678e-9
6481.25	4.800658e-9
6487.5	7.448625e-10
6493.75	3.371312e-9
6500	9.440656e-10
6506.25	5.502329e-10
6512.5	6.403806e-10
6518.75	6.714249e-10
6525	1.382985e-9
6531.25	1.161979e-9
6537.5	1.924765e-9
6543.75	1.88204e-9
6550	5.249042e-10
6556.25	1.629838e-9
6562.5	1.377007e-9
6568.75	1.994102e-9
6575	1.442073e-9
6581.25	8.283161e-10
6587.5	7.747827e-10
6593.75	2.332717e-10
6600	5.512018e-10
6606.25	9.862707e-10
6612.5	8.205582e-10
6618.75	6.06784e-10
6625	6.44511e-10
6631.25	1.221288e-10
6637.5	7.538674e-10
6643.75	4.082928e-10
6650	1.905061e-10
6656.25	7.184678e-10
6662.5	5.066427e-10
6668.75	3.171646e-11
6675	3.914458e-10
6681.25	4.009255e-10
6687.5	9.797645e-10
6693.75	3.449771e-10
6700	4.539599e-10
6706.25	4.975242e-10
6712.5	1.569422e-10
6718.75	3.76888e-10
6725	2.160459e-10
6731.25	5.886875e-10
6737.5	5.142917e-10
6743.75	1.387079e-10
6750	2.796863e-10
6756.25	1.71125e-10
6762.5	2.846122e-10
6768.75	3.229069e-10
6775	3.945603e-10
6781.25	3.770196e-10
6787.5	4.619033e-10
6793.75	2.641757e-10
6800	1.810637e-10
6806.25	3.530531e-10
6812.5	8.001984e-11
6818.75	2.443347e-10
6825	3.145843e-10
6831.25	2.549716e-10
6837.5	1.572301e-10
6843.75	1.885578e-10
6850	2.495063e-10
6856.25	9.033944e-11
6862.5	2.390763e-10
6868.75	2.335974e-10
6875	1.343068e-10
6881.25	2.698042e-10
6887.5	2.292544e-10
6893.75	2.18787e-10
6900	1.638293e-10
6906.25	2.172657e-10
6912.5	1.734231e-10
6918.75	1.865294e-10
6925	2.450618e-10
6931.25	2.188053e-10
6937.5	2.533418e-10
6943.75	1.9692e-10
6950	2.365187e-10
6956.25	2.212287e-10
6962.5	2.548292e-10
6968.75	2.711268e-10
6975	2.274329e-10
6981.25	2.326315e-10
6987.5	2.119815e-10
6993.75	2.610007e-10
7000	2.579559e-10
7006.25	2.301166e-10
7012.5	2.2977e-10
7018.75	2.247036e-10
7025	2.166646e-10
7031.25	2.213971e-10
7037.5	2.234519e-10
7043.75	2.253934e-10
7050	2.240067e-10
7056.25	2.265759e-10
7062.5	2.254291e-10
7068.75	2.223047e-10
7075	2.237393e-10
7081.25	2.25744e-10
7087.5	2.223727e-10
7093.75	2.226508e-10
7100	2.230878e-10
7106.25	2.228347e-10
7112.5	2.212846e-10
7118.75	2.21054e-10
7125	2.212741e-10
7131.25	2.240044e-10
7137.5	2.231743e-10
7143.75	2.210987e-10
7150	2.233084e-10
7156.25	2.191259e-10
7162.5	2.215954e-10
7168.75	2.220139e-10
7175	2.192088e-10
7181.25	2.213591e-10
7187.5	2.250646e-10
7193.75	2.242494e-10
7200	2.266239e-10
7206.25	2.208826e-10
7212.5	2.243389e-10
7218.75	2.254799e-10
7225	2.207874e-10
7231.25	2.255059e-10
7237.5	2.222713e-10
7243.75	2.207649e-10
7250	2.217279e-10
7256.25	2.231796e-10
7262.5	2.235741e-10
7268.75	2.225307e-10
7275	2.226952e-10
7281.25	2.229418e-10
7287.5	2.225449e-10
7293.75	2.227091e-10
7300	2.219286e-10
7306.25	2.218045e-10
7312.5	2.218232e-10
7318.75	2.220325e-10
7325	2.217502e-10
7331.25	2.223052e-10
7337.5	2.212776e-10
7343.75	2.220789e-10
7350	2.224109e-10
7356.25	2.218365e-10
7362.5	2.200373e-10
7368.75	2.222545e-10
7375	2.234503e-10
7381.25	2.202616e-10
7387.5	2.20301e-10
7393.75	2.194774e-10
7400	2.195858e-10
7406.25	2.203418e-10
7412.5	2.194934e-10
7418.75	2.202342e-10
7425	2.215856e-10
7431.25	2.207545e-10
7437.5	2.213411e-10
7443.75	2.204011e-10
7450	2.19067e-10
7456.25	2.177393e-10
7462.5	2.185101e-10
7468.75	2.199346e-10
7475	2.196986e-10
7481.25	2.233264e-10
7487.5	2.218462e-10
7493.75	2.165596e-10
7500	2.213575e-10
7506.25	2.217348e-10
7512.5	2.18053e-10
7518.75	2.199569e-10
7525	2.19408e-10
7531.25	2.20018e-10
7537.5	2.171677e-10
7543.75	2.221492e-10
7550	2.248251e-10
7556.25	2.215304e-10
7562.5	2.178012e-10
7568.75	2.167661e-10
7575	2.199591e-10
7581.25	2.187019e-10
7587.5	2.178509e-10
7593.75	2.176538e-10
7600	2.174686e-10
7606.25	2.187907e-10
7612.5	2.160065e-10
7618.75	2.19116e-10
7625	2.163724e-10
7631.25	2.175896e-10
7637.5	2.179485e-10
7643.75	2.160375e-10
7650	2.188087e-10
7656.25	2.162701e-10
7662.5	2.17237e-10
7668.75	2.166872e-10
7675	2.168734e-10
7681.25	2.166998e-10
7687.5	2.165565e-10
7693.75	2.163754e-10
7700	2.162144e-10
7706.25	2.165345e-10
7712.5	2.161962e-10
7718.75	2.160695e-10
7725	2.158388e-10
7731.25	2.157254e-10
7737.5	2.158894e-10
7743.75	2.156911e-10
7750	2.146393e-10
7756.25	2.162473e-10
7762.5	2.147134e-10
7768.75	2.153979e-10
7775	2.150938e-10
7781.25	2.159048e-10
7787.5	2.167481e-10
7793.75	2.146975e-10
7800	2.140972e-10
7806.25	2.153158e-10
7812.5	2.156533e-10
7818.75	2.136504e-10
7825	2.147316e-10
7831.25	2.150465e-10
7837.5	2.142002e-10
7843.75	2.1015e-10
7850	2.129816e-10
7856.25	2.132076e-10
7862.5	2.143945e-10
7868.75	2.110384e-10
7875	2.117554e-10
7881.25	2.127284e-10
7887.5	2.114777e-10
7893.75	2.152059e-10
7900	2.133324e-10
7906.25	2.117603e-10
7912.5	2.119133e-10
7918.75	2.088715e-10
7925	2.097193e-10
7931.25	2.138482e-10
7937.5	2.097293e-10
7943.75	2.138846e-10
7950	2.086435e-10
7956.25	2.113276e-10
7962.5	2.126758e-10
7968.75	2.115652e-10
7975	2.122717e-10
7981.25	2.118104e-10
7987.5	2.104119e-10
7993.75	2.117446e-10
8000	2.104703e-10
8006.25	2.100705e-10
8012.5	2.10749e-10
8018.75	2.098351e-10
8025	2.103529e-10
8031.25	2.110873e-10
8037.5	2.095629e-10
8043.75	2.105792e-10
8050	2.093438e-10
8056.25	2.093845e-10
8062.5	2.094207e-10
8068.75	2.092282e-10
8075	2.094469e-10
8081.25	2.091368e-10
8087.5	2.087733e-10
8093.75	2.086325e-10
8100	2.086108e-10
8106.25	2.085649e-10
8112.5	2.083402e-10
8118.75	2.085543e-10
8125	2.081906e-10
8131.25	2.077632e-10
8137.5	2.073722e-10
8143.75	2.078455e-10
8150	2.0687e-10
8156.25	2.079737e-10
8162.5	2.070942e-10
8168.75	2.059834e-10
8175	2.076815e-10
8181.25	2.062669e-10
8187.5	2.062742e-10
8193.75	2.06215e-10
8200	2.074307e-10
8206.25	2.055364e-10
8212.5	2.063406e-10
8218.75	2.053434e-10
8225	2.064737e-10
8231.25	2.050752e-10
8237.5	2.071139e-10
8243.75	2.0596e-10
8250	2.044858e-10
8256.25	2.045018e-10
8262.5	2.074361e-10
8268.75	2.052561e-10
8275	2.043751e-10
8281.25	2.057664e-10
8287.5	2.029407e-10
8293.75	2.076847e-10
8300	2.025903e-10
8306.25	2.027058e-10
8312.5	2.043139e-10
8318.75	2.00747e-10
8325	2.031806e-10
8331.25	2.037178e-10
8337.5	2.048125e-10
8343.75	2.040844e-10
8350	2.035217e-10
8356.25	2.048988e-10
8362.5	2.060631e-10
8368.75	2.02553e-10
8375	2.029007e-10
8381.25	2.019538e-10
8387.5	2.0349e-10
8393.75	2.007767e-10
8400	2.035725e-10
8406.25	2.025173e-10
8412.5	2.022525e-10
8418.75	2.025213e-10
8425	2.027297e-10
8431.25	2.015997e-10
8437.5	2.005778e-10
8443.75	2.015273e-10
8450	2.007261e-10
8456.25	2.001765e-10
8462.5	2.021092e-10
8468.75	2.009998e-10
8475	2.005054e-10
8481.25	2.001174e-10
8487.5	1.995489e-10
8493.75	2.002394e-10
8500	1.999562e-10
8506.25	2.006914e-10
8512.5	2.003604e-10
8518.75	1.999409e-10
8525	1.999505e-10
8531.25	1.997252e-10
8537.5	1.996337e-10
8543.75	1.994994e-10
8550	1.991999e-10
8556.25	1.992972e-10
8562.5	1.994074e-10
8568.75	1.990075e-10
8575	1.985672e-10
8581.25	1.983367e-10
8587.5	1.985077e-10
8593.75	1.990455e-10
8600	1.985586e-10
8606.25	1.988385e-10
8612.5	1.986767e-10
8618.75	1.965272e-10
8625	1.974326e-10
8631.25	1.975466e-10
8637.5	1.993128e-10
8643.75	1.973649e-10
8650	1.958765e-10
8656.25	1.982685e-10
8662.5	1.970682e-10
8668.75	1.958562e-10
8675	1.995182e-10
8681.25	1.978095e-10
8687.5	1.982195e-10
8693.75	1.987088e-10
8700	1.970786e-10
8706.25	1.991496e-10
8712.5	1.942331e-10
8718.75	1.971758e-10
8725	1.997385e-10
8731.25	1.92594e-10
8737.5	1.952187e-10
8743.75	1.949522e-10
8750	1.988359e-10
8756.25	1.922619e-10
8762.5	1.991951e-10
8768.75	1.950139e-10
8775	1.924661e-10
8781.25	1.945842e-10
8787.5	1.951648e-10
8793.75	1.948131e-10
8800	1.951121e-10
8806.25	1.913542e-10
8812.5	1.92742e-10
8818.75	1.956594e-10
8825	1.902203e-10
8831.25	1.980074e-10
8837.5	1.940586e-10
8843.75	1.959452e-10
8850	1.943199e-10
8856.25	1.949918e-10
8862.5	1.944155e-10
8868.75	1.937947e-10
8875	1.942884e-10
8881.25	1.930008e-10
8887.5	1.92031e-10
8893.75	1.925007e-10
8900	1.946278e-10
8906.25	1.908541e-10
8912.5	1.945058e-10
8918.75	1.925776e-10
8925	1.918017e-10
8931.25	1.903149e-10
8937.5	1.928192e-10
8943.75	1.917737e-10
8950	1.915234e-10
8956.25	1.915134e-10
8962.5	1.912344e-10
8968.75	1.91452e-10
8975	1.907954e-10
8981.25	1.90927e-10
8987.5	1.906595e-10
8993.75	1.906e-10
9000	1.90522e-10
9006.25	1.903636e-10
9012.5	1.903023e-10
9018.75	1.901157e-10
9025	1.901732e-10
9031.25	1.900678e-10
9037.5	1.901611e-10
9043.75	1.897586e-10
9050	1.900201e-10
9056.25	1.893317e-10
9062.5	1.894582e-10
9068.75	1.891988e-10
9075	1.884604e-10
9081.25	1.893811e-10
9087.5	1.886704e-10
9093.75	1.88711e-10
9100	1.879422e-10
9106.25	1.889405e-10
9112.5	1.877525e-10
9118.75	1.871875e-10
9125	1.892707e-10
9131.25	1.886636e-10
9137.5	1.896201e-10
9143.75	1.876662e-10
9150	1.883096e-10
9156.25	1.888976e-10
9162.5	1.885613e-10
9168.75	1.888371e-10
9175	1.859021e-10
9181.25	1.872507e-10
9187.5	1.864524e-10
9193.75	1.849376e-10
9200	1.863753e-10
9206.25	1.864255e-10
9212.5	1.882283e-10
9218.75	1.864028e-10
9225	1.853074e-10
9231.25	1.863183e-10
9237.5	1.878588e-10
9243.75	1.839753e-10
9250	1.863041e-10
9256.25	1.855265e-10
9262.5	1.855117e-10
9268.75	1.850709e-10
9275	1.852317e-10
9281.25	1.868515e-10
9287.5	1.831581e-10
9293.75	1.863953e-10
9300	1.855166e-10
9306.25	1.848063e-10
9312.5	1.844828e-10
9318.75	1.837938e-10
9325	1.847915e-10
9331.25	1.843891e-10
9337.5	1.842611e-10
9343.75	1.841871e-10
9350	1.842994e-10
9356.25	1.833098e-10
9362.5	1.842701e-10
9368.75	1.836838e-10
9375	1.839087e-10
9381.25	1.842575e-10
9387.5	1.831555e-10
9393.75	1.835522e-10
9400	1.832051e-10
9406.25	1.832718e-10
9412.5	1.830736e-10
9418.75	1.829563e-10
9425	1.826003e-10
9431.25	1.825433e-10
9437.5	1.826336e-10
9443.75	1.826283e-10
9450	1.823144e-10
9456.25	1.8228e-10
9462.5	1.822128e-10
9468.75	1.820717e-10
9475	1.819625e-10
9481.25	1.818536e-10
9487.5	1.816802e-10
9493.75	1.816412e-10
9500	1.817149e-10
9506.25	1.814372e-10
9512.5	1.811661e-10
9518.75	1.814014e-10
9525	1.810064e-10
9531.25	1.807866e-10
9537.5	1.802472e-10
9543.75	1.808205e-10
9550	1.802177e-10
9556.25	1.8097e-10
9562.5	1.805184e-10
9568.75	1.806585e-10
9575	1.807652e-10
9581.25	1.804441e-10
9587.5	1.791737e-10
9593.75	1.802692e-10
9600	1.788205e-10
9606.25	1.793526e-10
9612.5	1.791072e-10
9618.75	1.793784e-10
9625	1.797847e-10
9631.25	1.791321e-10
9637.5	1.79304e-10
9643.75	1.783959e-10
9650	1.796102e-10
9656.25	1.778857e-10
9662.5	1.793269e-10
9668.75	1.794141e-10
9675	1.790702e-10
9681.25	1.786934e-10
9687.5	1.782501e-10
9693.75	1.796206e-10
9700	1.775035e-10
9706.25	1.78271e-10
9712.5	1.781611e-10
9718.75	1.776315e-10
9725	1.764225e-10
9731.25	1.770883e-10
9737.5	1.777613e-10
9743.75	1.783005e-10
9750	1.767268e-10
9756.25	1.766843e-10
9762.5	1.784524e-10
9768.75	1.76191e-10
9775	1.768403e-10
9781.25	1.763521e-10
9787.5	1.771115e-10
9793.75	1.766788e-10
9800	1.761965e-10
9806.25	1.760758e-10
9812.5	1.765649e-10
9818.75	1.755163e-10
9825	1.759971e-10
9831.25	1.756418e-10
9837.5	1.754096e-10
9843.75	1.756357e-10
9850	1.755206e-10
9856.25	1.755203e-10
9862.5	1.754837e-10
9868.75	1.751104e-10
9875	1.748071e-10
9881.25	1.751018e-10
9887.5	1.749928e-10
9893.75	1.750448e-10
9900	1.74841e-10
9906.25	1.747895e-10
9912.5	1.745902e-10
9918.75	1.744344e-10
9925	1.743935e-10
9931.25	1.7422e-10
9937.5	1.741629e-10
9943.75	1.740487e-10
9950	1.739533e-10
9956.25	1.738135e-10
9962.5	1.737815e-10
9968.75	1.737355e-10
9975	1.737374e-10
9981.25	1.733654e-10
9987.5	1.731297e-10
9993.75	1.73572e-10
10000	1.729098e-10
10006.25	1.730219e-10
10012.5	1.72605e-10
10018.75	1.731182e-10
10025	1.726421e-10
10031.25	1.725279e-10
10037.5	1.723064e-10
10043.75	1.722022e-10
10050	1.729375e-10
10056.25	1.721481e-10
10062.5	1.72064e-10
10068.75	1.715834e-10
10075	1.715409e-10
10081.25	1.72291e-10
10087.5	1.708486e-10
10093.75	1.711852e-10
10100	1.721198e-10
10106.25	1.712471e-10
10112.5	1.71577e-10
10118.75	1.715325e-10
10125	1.714641e-10
10131.25	1.703562e-10
10137.5	1.715526e-10
10143.75	1.701138e-10
10150	1.711773e-10
10156.25	1.712623e-10
10162.5	1.709348e-10
10168.75	1.713279e-10
10175	1.715474e-10
10181.25	1.71067e-10
10187.5	1.707009e-10
10193.75	1.713854e-10
10200	1.703948e-10
10206.25	1.699669e-10
10212.5	1.698878e-10
10218.75	1.697857e-10
10225	1.691519e-10
10231.25	1.694427e-10
10237.5	1.694043e-10
10243.75	1.699361e-10
10250	1.693289e-10
10256.25	1.694814e-10
10262.5	1.693796e-10
10268.75	1.690329e-10
10275	1.693781e-10
10281.25	1.69168e-10
10287.5	1.694041e-10
10293.75	1.681485e-10
10300	1.686741e-10
10306.25	1.685924e-10
10312.5	1.681842e-10
10318.75	1.683296e-10
10325	1.684941e-10
10331.25	1.682073e-10
10337.5	1.679518e-10
10343.75	1.683124e-10
10350	1.680231e-10
10356.25	1.677076e-10
10362.5	1.679359e-10
10368.75	1.67878e-10
10375	1.676882e-10
10381.25	1.675478e-10
10387.5	1.674144e-10
10393.75	1.674037e-10
10400	1.673223e-10
10406.25	1.671329e-10
10412.5	1.670815e-10
10418.75	1.669918e-10
10425	1.668988e-10
10431.25	1.66785e-10
10437.5	1.667184e-10
10443.75	1.666998e-10
10450	1.666571e-10
10456.25	1.6643e-10
10462.5	1.664513e-10
10468.75	1.66102e-10
10475	1.66148e-10
10481.25	1.663236e-10
10487.5	1.660122e-10
10493.75	1.659335e-10
10500	1.654292e-10
10506.25	1.659404e-10
10512.5	1.657465e-10
10518.75	1.655e-10
10525	1.657673e-10
10531.25	1.659095e-10
10537.5	1.65577e-10
10543.75	1.652038e-10
10550	1.652655e-10
10556.25	1.65296e-10
10562.5	1.656026e-10
10568.75	1.643968e-10
10575	1.65192e-10
10581.25	1.644172e-10
10587.5	1.646684e-10
10593.75	1.633111e-10
10600	1.644937e-10
10606.25	1.652056e-10
10612.5	1.644341e-10
10618.75	1.648004e-10
10625	1.645731e-10
10631.25	1.632436e-10
10637.5	1.638559e-10
10643.75	1.640379e-10
10650	1.63695e-10
10656.25	1.632913e-10
10662.5	1.644151e-10
10668.75	1.634613e-10
10675	1.639007e-10
10681.25	1.632776e-10
10687.5	1.62869e-10
10693.75	1.634479e-10
10700	1.629266e-10
10706.25	1.625885e-10
10712.5	1.628818e-10
10718.75	1.624425e-10
10725	1.626077e-10
10731.25	1.630457e-10
10737.5	1.623695e-10
10743.75	1.63079e-10
10750	1.620853e-10
10756.25	1.621703e-10
10762.5	1.618164e-10
10768.75	1.625033e-10
10775	1.617048e-10
10781.25	1.61454e-10
10787.5	1.622471e-10
10793.75	1.615791e-10
10800	1.613136e-10
10806.25	1.613044e-10
10812.5	1.611277e-10
10818.75	1.6121e-10
10825	1.612199e-10
10831.25	1.611544e-10
10837.5	1.610594e-10
10843.75	1.610037e-10
10850	1.609377e-10
10856.25	1.608063e-10
10862.5	1.607789e-10
10868.75	1.606968e-10
10875	1.605778e-10
10881.25	1.606082e-10
10887.5	1.603666e-10
10893.75	1.603259e-10
10900	1.602879e-10
10906.25	1.602079e-10
10912.5	1.601476e-10
10918.75	1.600344e-10
10925	1.599977e-10
10931.25	1.598987e-10
10937.5	1.598898e-10
10943.75	1.595927e-10
10950	1.598284e-10
10956.25	1.59593e-10
10962.5	1.593095e-10
10968.75	1.593687e-10
10975	1.590528e-10
10981.25	1.590738e-10
10987.5	1.589326e-10
10993.75	1.593955e-10
11000	1.5923e-10
11006.25	1.591139e-10
11012.5	1.588944e-10
11018.75	1.590777e-10
11025	1.586062e-10
11031.25	1.586148e-10
11037.5	1.588955e-10
11043.75	1.577251e-10
11050	1.586202e-10
11056.25	1.584756e-10
11062.5	1.578002e-10
11068.75	1.576544e-10
11075	1.582974e-10
11081.25	1.577495e-10
11087.5	1.581323e-10
11093.75	1.583162e-10
11100	1.581742e-10
11106.25	1.576543e-10
11112.5	1.57648e-10
11118.75	1.572455e-10
11125	1.556537e-10
11131.25	1.575501e-10
11137.5	1.574925e-10
11143.75	1.573472e-10
11150	1.574374e-10
11156.25	1.568626e-10
11162.5	1.562155e-10
11168.75	1.568775e-10
11175	1.568964e-10
11181.25	1.557973e-10
11187.5	1.565358e-10
11193.75	1.567827e-10
11200	1.564463e-10
11206.25	1.57001e-10
11212.5	1.55982e-10
11218.75	1.569781e-10
11225	1.563675e-10
11231.25	1.563273e-10
11237.5	1.555324e-10
11243.75	1.561558e-10
11250	1.558235e-10
11256.25	1.559206e-10
11262.5	1.551003e-10
11268.75	1.558163e-10
11275	1.554315e-10
11281.25	1.553151e-10
11287.5	1.552446e-10
11293.75	1.554369e-10
11300	1.549631e-10
11306.25	1.551043e-10
11312.5	1.552911e-10
11318.75	1.552478e-10
11325	1.54988e-10
11331.25	1.548287e-10
11337.5	1.54987e-10
11343.75	1.548824e-10
11350	1.547647e-10
11356.25	1.546257e-10
11362.5	1.545875e-10
11368.75	1.544291e-10
11375	1.543522e-10
11381.25	1.543025e-10
11387.5	1.542302e-10
11393.75	1.541465e-10
11400	1.541043e-10
11406.25	1.539519e-10
11412.5	1.539647e-10
11418.75	1.539548e-10
11425	1.537351e-10
11431.25	1.537582e-10
11437.5	1.536197e-10
11443.75	1.537443e-10
11450	1.535863e-10
11456.25	1.531406e-10
11462.5	1.532664e-10
11468.75	1.533507e-10
11475	1.529588e-10
11481.25	1.532845e-10
11487.5	1.531285e-10
11493.75	1.525335e-10
11500	1.53166e-10
11506.25	1.528868e-10
11512.5	1.529867e-10
11518.75	1.528546e-10
11525	1.528448e-10
11531.25	1.527972e-10
11537.5	1.528929e-10
11543.75	1.519344e-10
11550	1.518336e-10
11556.25	1.523194e-10
11562.5	1.517165e-10
11568.75	1.521375e-10
11575	1.522207e-10
11581.25	1.521242e-10
11587.5	1.523563e-10
11593.75	1.523023e-10
11600	1.516026e-10
11606.25	1.517903e-10
11612.5	1.518759e-10
11618.75	1.510964e-10
11625	1.517865e-10
11631.25	1.518277e-10
11637.5	1.524372e-10
11643.75	1.508845e-10
11650	1.5138e-10
11656.25	1.504135e-10
11662.5	1.512732e-10
11668.75	1.51135e-10
11675	1.516537e-10
11681.25	1.505302e-10
11687.5	1.509652e-10
11693.75	1.504503e-10
11700	1.515541e-10
11706.25	1.501658e-10
11712.5	1.503211e-10
11718.75	1.503718e-10
11725	1.50579e-10
11731.25	1.498236e-10
11737.5	1.505726e-10
11743.75	1.505609e-10
11750	1.503641e-10
11756.25	1.503237e-10
11762.5	1.503198e-10
11768.75	1.502505e-10
11775	1.498778e-10
11781.25	1.498312e-10
11787.5	1.499568e-10
11793.75	1.49816e-10
11800	1.49569e-10
11806.25	1.49206e-10
11812.5	1.494666e-10
11818.75	1.492595e-10
11825	1.493768e-10
11831.25	1.491353e-10
11837.5	1.494445e-10
11843.75	1.490923e-10
11850	1.491231e-10
11856.25	1.490866e-10
11862.5	1.488955e-10
11868.75	1.488335e-10
11875	1.487987e-10
11881.25	1.487382e-10
11887.5	1.486557e-10
11893.75	1.486042e-10
11900	1.485102e-10
11906.25	1.48435e-10
11912.5	1.482849e-10
11918.75	1.482017e-10
11925	1.482163e-10
11931.25	1.482764e-10
11937.5	1.481301e-10
11943.75	1.479843e-10
11950	1.480197e-10
11956.25	1.475846e-10
11962.5	1.481641e-10
11968.75	1.479759e-10
11975	1.474465e-10
11981.25	1.478201e-10
11987.5	1.475585e-10
11993.75	1.476084e-10
12000	1.47747e-10
12006.25	1.472081e-10
12012.5	1.471016e-10
12018.75	1.47874e-10
12025	1.476475e-10
12031.25	1.472527e-10
12037.5	1.46813e-10
12043.75	1.474583e-10
12050	1.464975e-10
12056.25	1.468379e-10
12062.5	1.472153e-10
12068.75	1.464959e-10
12075	1.468416e-10
12081.25	1.467946e-10
12087.5	1.470383e-10
12093.75	1.456637e-10
12100	1.464376e-10
12106.25	1.460089e-10
12112.5	1.457907e-10
12118.75	1.468527e-10
12125	1.460643e-10
12131.25	1.456431e-10
12137.5	1.460661e-10
12143.75	1.457152e-10
12150	1.461353e-10
12156.25	1.461348e-10
12162.5	1.459011e-10
12168.75	1.458607e-10
12175	1.451327e-10
12181.25	1.451737e-10
12187.5	1.45931e-10
12193.75	1.45078e-10
12200	1.451873e-10
12206.25	1.461692e-10
12212.5	1.452117e-10
12218.75	1.45447e-10
12225	1.450742e-10
12231.25	1.454567e-10
12237.5	1.443517e-10
12243.75	1.448641e-10
12250	1.447908e-10
12256.25	1.447486e-10
12262.5	1.448661e-10
12268.75	1.440992e-10
12275	1.446798e-10
12281.25	1.446509e-10
12287.5	1.443098e-10
12293.75	1.446785e-10
12300	1.443733e-10
12306.25	1.443688e-10
12312.5	1.442773e-10
12318.75	1.441392e-10
12325	1.441492e-10
12331.25	1.44185e-10
12337.5	1.439414e-10
12343.75	1.438655e-10
12350	1.438555e-10
12356.25	1.438432e-10
12362.5	1.437826e-10
12368.75	1.43714e-10
12375	1.436542e-10
12381.25	1.4359e-10
12387.5	1.435777e-10
12393.75	1.434898e-10
12400	1.434576e-10
12406.25	1.434224e-10
12412.5	1.433526e-10
12418.75	1.432379e-10
12425	1.432195e-10
12431.25	1.429276e-10
12437.5	1.431869e-10
12443.75	1.428938e-10
12450	1.427496e-10
12456.25	1.42765e-10
12462.5	1.42666e-10
12468.75	1.423358e-10
12475	1.424404e-10
12481.25	1.428807e-10
12487.5	1.426476e-10
12493.75	1.427265e-10
12500	1.421636e-10
12506.25	1.41971e-10
12512.5	1.422181e-10
12518.75	1.422025e-10
12525	1.425669e-10
12531.25	1.420502e-10
12537.5	1.418852e-10
12543.75	1.419647e-10
12550	1.416687e-10
12556.25	1.418706e-10
12562.5	1.419801e-10
12568.75	1.424765e-10
12575	1.417757e-10
12581.25	1.420823e-10
12587.5	1.408564e-10
12593.75	1.416489e-10
12600	1.414957e-10
12606.25	1.409363e-10
12612.5	1.416164e-10
12618.75	1.416458e-10
12625	1.418498e-10
12631.25	1.410092e-10
12637.5	1.412439e-10
12643.75	1.410067e-10
12650	1.417668e-10
12656.25	1.408488e-10
12662.5	1.410024e-10
12668.75	1.410949e-10
12675	1.407124e-10
12681.25	1.406542e-10
12687.5	1.399975e-10
12693.75	1.406239e-10
12700	1.414049e-10
12706.25	1.406175e-10
12712.5	1.403552e-10
12718.75	1.403661e-10
12725	1.402372e-10
12731.25	1.405484e-10
12737.5	1.403491e-10
12743.75	1.402948e-10
12750	1.397528e-10
12756.25	1.404825e-10
12762.5	1.40142e-10
12768.75	1.400149e-10
12775	1.401718e-10
12781.25	1.399614e-10
12787.5	1.398437e-10
12793.75	1.397937e-10
12800	1.395334e-10
12806.25	1.396624e-10
12812.5	1.395519e-10
12818.75	1.396852e-10
12825	1.394428e-10
12831.25	1.394393e-10
12837.5	1.394222e-10
12843.75	1.393472e-10
12850	1.392795e-10
12856.25	1.39244e-10
12862.5	1.391835e-10
12868.75	1.391104e-10
12875	1.390648e-10
12881.25	1.39069e-10
12887.5	1.39006e-10
12893.75	1.388691e-10
12900	1.389476e-10
12906.25	1.389422e-10
12912.5	1.387375e-10
12918.75	1.387633e-10
12925	1.386015e-10
12931.25	1.383534e-10
12937.5	1.385289e-10
12943.75	1.385754e-10
12950	1.384786e-10
12956.25	1.384072e-10
12962.5	1.380216e-10
12968.75	1.383683e-10
12975	1.381552e-10
12981.25	1.381333e-10
12987.5	1.379483e-10
12993.75	1.380068e-10
13000	1.37439e-10
13006.25	1.37946e-10
13012.5	1.376561e-10
13018.75	1.38022e-10
13025	1.377862e-10
13031.25	1.37428e-10
13037.5	1.377446e-10
13043.75	1.376501e-10
13050	1.372922e-10
13056.25	1.372253e-10
13062.5	1.374019e-10
13068.75	1.37861e-10
13075	1.374662e-10
13081.25	1.373094e-10
13087.5	1.367212e-10
13093.75	1.370252e-10
13100	1.36785e-10
13106.25	1.371482e-10
13112.5	1.370524e-10
13118.75	1.365019e-10
13125	1.373384e-10
13131.25	1.362987e-10
13137.5	1.371708e-10
13143.75	1.365061e-10
13150	1.367289e-10
13156.25	1.367591e-10
13162.5	1.364403e-10
13168.75	1.366556e-10
13175	1.368756e-10
13181.25	1.363041e-10
13187.5	1.36276e-10
13193.75	1.367698e-10
13200	1.361943e-10
13206.25	1.368416e-10
13212.5	1.363855e-10
13218.75	1.358705e-10
13225	1.362759e-10
13231.25	1.359005e-10
13237.5	1.362476e-10
13243.75	1.35669e-10
13250	1.35663e-10
13256.25	1.358743e-10
13262.5	1.358078e-10
13268.75	1.359299e-10
13275	1.356098e-10
13281.25	1.357425e-10
13287.5	1.353546e-10
13293.75	1.354892e-10
13300	1.35439e-10
13306.25	1.354177e-10
13312.5	1.353855e-10
13318.75	1.352913e-10
13325	1.353337e-10
13331.25	1.352215e-10
13337.5	1.351927e-10
13343.75	1.35119e-10
13350	1.350915e-10
13356.25	1.350394e-10
13362.5	1.349804e-10
13368.75	1.349868e-10
13375	1.348126e-10
13381.25	1.348596e-10
13387.5	1.347874e-10
13393.75	1.348051e-10
13400	1.346524e-10
13406.25	1.345135e-10
13412.5	1.344863e-10
13418.75	1.347438e-10
13425	1.344167e-10
13431.25	1.346352e-10
13437.5	1.340889e-10
13443.75	1.343411e-10
13450	1.342126e-10
13456.25	1.341487e-10
13462.5	1.341789e-10
13468.75	1.341239e-10
13475	1.341362e-10
13481.25	1.342037e-10
13487.5	1.336786e-10
13493.75	1.341895e-10
13500	1.335591e-10
13506.25	1.340382e-10
13512.5	1.337104e-10
13518.75	1.339495e-10
13525	1.334833e-10
13531.25	1.338286e-10
13537.5	1.332723e-10
13543.75	1.335709e-10
13550	1.334542e-10
13556.25	1.335568e-10
13562.5	1.333625e-10
13568.75	1.333744e-10
13575	1.329023e-10
13581.25	1.335003e-10
13587.5	1.333344e-10
13593.75	1.32563e-10
13600	1.332206e-10
13606.25	1.324583e-10
13612.5	1.334294e-10
13618.75	1.326228e-10
13625	1.327518e-10
13631.25	1.326184e-10
13637.5	1.32901e-10
13643.75	1.326443e-10
13650	1.333303e-10
13656.25	1.321923e-10
13662.5	1.326065e-10
13668.75	1.323231e-10
13675	1.326163e-10
13681.25	1.320724e-10
13687.5	1.322718e-10
13693.75	1.321598e-10
13700	1.32539e-10
13706.25	1.327049e-10
13712.5	1.324722e-10
13718.75	1.319887e-10
13725	1.319981e-10
13731.25	1.32212e-10
13737.5	1.323855e-10
13743.75	1.319227e-10
13750	1.322751e-10
13756.25	1.319927e-10
13762.5	1.317564e-10
13768.75	1.317975e-10
13775	1.314882e-10
13781.25	1.317366e-10
13787.5	1.3179e-10
13793.75	1.316112e-10
13800	1.316032e-10
13806.25	1.315564e-10
13812.5	1.314746e-10
13818.75	1.314372e-10
13825	1.314035e-10
13831.25	1.314128e-10
13837.5	1.313221e-10
13843.75	1.312688e-10
13850	1.312014e-10
13856.25	1.311825e-10
13862.5	1.311285e-10
13868.75	1.310989e-10
13875	1.31113e-10
13881.25	1.309027e-10
13887.5	1.309815e-10
13893.75	1.308497e-10
13900	1.310979e-10
13906.25	1.309184e-10
13912.5	1.306989e-10
13918.75	1.30887e-10
13925	1.304916e-10
13931.25	1.306896e-10
13937.5	1.305312e-10
13943.75	1.306449e-10
13950	1.303134e-10
13956.25	1.304171e-10
13962.5	1.300907e-10
13968.75	1.304352e-10
13975	1.309783e-10
13981.25	1.302164e-10
13987.5	1.306383e-10
13993.75	1.303753e-10
14000	1.302673e-10
14006.25	1.302836e-10
14012.5	1.303114e-10
14018.75	1.29713e-10
14025	1.297404e-10
14031.25	1.304369e-10
14037.5	1.295729e-10
14043.75	1.296181e-10
14050	1.288227e-10
14056.25	1.298882e-10
14062.5	1.293263e-10
14068.75	1.299357e-10
14075	1.292318e-10
14081.25	1.299163e-10
14087.5	1.296086e-10
14093.75	1.292882e-10
14100	1.298453e-10
14106.25	1.29154e-10
14112.5	1.293448e-10
14118.75	1.296121e-10
14125	1.288756e-10
14131.25	1.294699e-10
14137.5	1.288189e-10
14143.75	1.292812e-10
14150	1.292227e-10
14156.25	1.294217e-10
14162.5	1.28763e-10
14168.75	1.29043e-10
14175	1.287149e-10
14181.25	1.289864e-10
14187.5	1.290608e-10
14193.75	1.288317e-10
14200	1.286219e-10
14206.25	1.289168e-10
14212.5	1.286372e-10
14218.75	1.283616e-10
14225	1.287108e-10
14231.25	1.285446e-10
14237.5	1.28697e-10
14243.75	1.282967e-10
14250	1.283101e-10
14256.25	1.283557e-10
14262.5	1.284057e-10
14268.75	1.284007e-10
14275	1.282212e-10
14281.25	1.281105e-10
14287.5	1.281322e-10
14293.75	1.281487e-10
14300	1.280373e-10
14306.25	1.280524e-10
14312.5	1.280301e-10
14318.75	1.280005e-10
14325	1.279066e-10
14331.25	1.278931e-10
14337.5	1.27839e-10
14343.75	1.277988e-10
14350	1.277474e-10
14356.25	1.27646e-10
14362.5	1.276915e-10
14368.75	1.277059e-10
14375	1.275529e-10
14381.25	1.276471e-10
14387.5	1.275039e-10
14393.75	1.276096e-10
14400	1.27365e-10
14406.25	1.27343e-10
14412.5	1.275609e-10
14418.75	1.271606e-10
14425	1.272358e-10
14431.25	1.271114e-10
14437.5	1.272888e-10
14443.75	1.269544e-10
14450	1.271756e-10
14456.25	1.269217e-10
14462.5	1.270369e-10
14468.75	1.272645e-10
14475	1.270016e-10
14481.25	1.270948e-10
14487.5	1.270201e-10
14493.75	1.267104e-10
14500	1.268227e-10
14506.25	1.269109e-10
14512.5	1.263779e-10
14518.75	1.270191e-10
14525	1.266501e-10
14531.25	1.266007e-10
14537.5	1.264938e-10
14543.75	1.265549e-10
14550	1.260841e-10
14556.25	1.264785e-10
14562.5	1.262223e-10
14568.75	1.26099e-10
14575	1.259887e-10
14581.25	1.260212e-10
14587.5	1.262025e-10
14593.75	1.262423e-10
14600	1.260096e-10
14606.25	1.26248e-10
14612.5	1.263242e-10
14618.75	1.257548e-10
14625	1.261078e-10
14631.25	1.257139e-10
14637.5	1.262521e-10
14643.75	1.255732e-10
14650	1.259602e-10
14656.25	1.258692e-10
14662.5	1.258099e-10
14668.75	1.259328e-10
14675	1.254091e-10
14681.25	1.255063e-10
14687.5	1.257654e-10
14693.75	1.253805e-10
14700	1.255246e-10
14706.25	1.253797e-10
14712.5	1.252227e-10
14718.75	1.254227e-10
14725	1.254171e-10
14731.25	1.253432e-10
14737.5	1.252715e-10
14743.75	1.252062e-10
14750	1.252635e-10
14756.25	1.251289e-10
14762.5	1.25008e-10
14768.75	1.248083e-10
14775	1.251741e-10
14781.25	1.249901e-10
14787.5	1.248634e-10
14793.75	1.24899e-10
14800	1.248319e-10
14806.25	1.248111e-10
14812.5	1.247784e-10
14818.75	1.247288e-10
14825	1.246786e-10
14831.25	1.246393e-10
14837.5	1.246065e-10
14843.75	1.245603e-10
14850	1.245273e-10
14856.25	1.244037e-10
14862.5	1.245137e-10
14868.75	1.244036e-10
14875	1.244438e-10
14881.25	1.243721e-10
14887.5	1.243345e-10
14893.75	1.242153e-10
14900	1.242995e-10
14906.25	1.241125e-10
14912.5	1.242055e-10
14918.75	1.240799e-10
14925	1.242647e-10
14931.25	1.241164e-10
14937.5	1.240312e-10
14943.75	1.241826e-10
14950	1.23995e-10
14956.25	1.239572e-10
14962.5	1.241794e-10
14968.75	1.238616e-10
14975	1.235057e-10
14981.25	1.236449e-10
14987.5	1.234195e-10
14993.75	1.234875e-10
15000	1.236263e-10
15006.25	1.233171e-10
15012.5	1.23673e-10
15018.75	1.23972e-10
15025	1.23175e-10
15031.25	1.237092e-10
15037.5	1.228937e-10
15043.75	1.235732e-10
15050	1.233667e-10
15056.25	1.233522e-10
15062.5	1.23037e-10
15068.75	1.231931e-10
15075	1.232135e-10
15081.25	1.233441e-10
15087.5	1.231362e-10
15093.75	1.235291e-10
15100	1.22779e-10
15106.25	1.231647e-10
15112.5	1.229324e-10
15118.75	1.230542e-10
15125	1.230491e-10
15131.25	1.229058e-10
15137.5	1.232517e-10
15143.75	1.229312e-10
15150	1.230272e-10
15156.25	1.225975e-10
15162.5	1.23021e-10
15168.75	1.22218e-10
15175	1.22709e-10
15181.25	1.225819e-10
15187.5	1.224562e-10
15193.75	1.228995e-10
15200	1.22652e-10
15206.25	1.225391e-10
15212.5	1.223336e-10
15218.75	1.221142e-10
15225	1.223602e-10
15231.25	1.221199e-10
15237.5	1.221177e-10
15243.75	1.223829e-10
15250	1.222245e-10
15256.25	1.219773e-10
15262.5	1.22317e-10
15268.75	1.222055e-10
15275	1.221579e-10
15281.25	1.218748e-10
15287.5	1.2188e-10
15293.75	1.220065e-10
15300	1.21916e-10
15306.25	1.218766e-10
15312.5	1.218385e-10
15318.75	1.218056e-10
15325	1.21778e-10
15331.25	1.217421e-10
15337.5	1.217228e-10
15343.75	1.216659e-10
15350	1.216232e-10
15356.25	1.216603e-10
15362.5	1.215947e-10
15368.75	1.215201e-10
15375	1.213874e-10
15381.25	1.215562e-10
15387.5	1.214523e-10
15393.75	1.214419e-10
15400	1.215373e-10
15406.25	1.213749e-10
15412.5	1.213189e-10
15418.75	1.21269e-10
15425	1.21186e-10
15431.25	1.208042e-10
15437.5	1.20954e-10
15443.75	1.21148e-10
15450	1.21291e-10
15456.25	1.210212e-10
15462.5	1.209421e-10
15468.75	1.21072e-10
15475	1.211829e-10
15481.25	1.208324e-10
15487.5	1.207015e-10
15493.75	1.208347e-10
15500	1.205753e-10
15506.25	1.209443e-10
15512.5	1.207809e-10
15518.75	1.203475e-10
15525	1.205639e-10
15531.25	1.201844e-10
15537.5	1.208807e-10
15543.75	1.204966e-10
15550	1.206506e-10
15556.25	1.208891e-10
15562.5	1.20432e-10
15568.75	1.199127e-10
15575	1.201293e-10
15581.25	1.198668e-10
15587.5	1.20535e-10
15593.75	1.203618e-10
15600	1.204712e-10
15606.25	1.194217e-10
15612.5	1.19808e-10
15618.75	1.199561e-10
15625	1.202075e-10
15631.25	1.197139e-10
15637.5	1.20389e-10
15643.75	1.199905e-10
15650	1.199457e-10
15656.25	1.203794e-10
15662.5	1.196582e-10
15668.75	1.201611e-10
15675	1.199918e-10
15681.25	1.194844e-10
15687.5	1.197231e-10
15693.75	1.197119e-10
15700	1.195381e-10
15706.25	1.194862e-10
15712.5	1.197183e-10
15718.75	1.197099e-10
15725	1.194968e-10
15731.25	1.196953e-10
15737.5	1.194545e-10
15743.75	1.192887e-10
15750	1.194292e-10
15756.25	1.194342e-10
15762.5	1.195236e-10
15768.75	1.194772e-10
15775	1.193418e-10
15781.25	1.193849e-10
15787.5	1.192203e-10
15793.75	1.192917e-10
15800	1.192269e-10
15806.25	1.191758e-10
15812.5	1.191505e-10
15818.75	1.191135e-10
15825	1.190957e-10
15831.25	1.1902e-10
15837.5	1.190168e-10
15843.75	1.189505e-10
15850	1.189424e-10
15856.25	1.189995e-10
15862.5	1.190161e-10
15868.75	1.188868e-10
15875	1.188346e-10
15881.25	1.188304e-10
15887.5	1.189145e-10
15893.75	1.187836e-10
15900	1.188663e-10
15906.25	1.188611e-10
15912.5	1.185508e-10
15918.75	1.187277e-10
15925	1.185923e-10
15931.25	1.188393e-10
15937.5	1.186086e-10
15943.75	1.184624e-10
15950	1.184315e-10
15956.25	1.189409e-10
15962.5	1.180638e-10
15968.75	1.181774e-10
15975	1.184791e-10
15981.25	1.182174e-10
15987.5	1.183046e-10
15993.75	1.184083e-10
16000	1.185557e-10
16006.25	1.179633e-10
16012.5	1.181604e-10
16018.75	1.178262e-10
16025	1.184359e-10
16031.25	1.180938e-10
16037.5	1.182068e-10
16043.75	1.18051e-10
16050	1.183779e-10
16056.25	1.177333e-10
16062.5	1.181093e-10
16068.75	1.174833e-10
16075	1.17226e-10
16081.25	1.175929e-10
16087.5	1.176131e-10
16093.75	1.175702e-10
16100	1.172477e-10
16106.25	1.17442e-10
16112.5	1.175552e-10
16118.75	1.178686e-10
16125	1.179924e-10
16131.25	1.172834e-10
16137.5	1.172919e-10
16143.75	1.171127e-10
16150	1.173216e-10
16156.25	1.177612e-10
16162.5	1.170128e-10
16168.75	1.177719e-10
16175	1.17605e-10
16181.25	1.171885e-10
16187.5	1.171476e-10
16193.75	1.173479e-10
16200	1.172261e-10
16206.25	1.171864e-10
16212.5	1.174075e-10
16218.75	1.17247e-10
16225	1.169946e-10
16231.25	1.171266e-10
16237.5	1.171225e-10
16243.75	1.169317e-10
16250	1.170988e-10
16256.25	1.170368e-10
16262.5	1.169325e-10
16268.75	1.169102e-10
16275	1.169369e-10
16281.25	1.168946e-10
16287.5	1.168314e-10
16293.75	1.16787e-10
16300	1.167931e-10
16306.25	1.167263e-10
16312.5	1.167029e-10
16318.75	1.166578e-10
16325	1.16646e-10
16331.25	1.166388e-10
16337.5	1.165621e-10
16343.75	1.16491e-10
16350	1.165156e-10
16356.25	1.16548e-10
16362.5	1.164786e-10
16368.75	1.163278e-10
16375	1.166558e-10
16381.25	1.162986e-10
16387.5	1.16345e-10
16393.75	1.164654e-10
16400	1.163736e-10
16406.25	1.163628e-10
16412.5	1.163033e-10
16418.75	1.162489e-10
16425	1.163466e-10
16431.25	1.161589e-10
16437.5	1.162843e-10
16443.75	1.160901e-10
16450	1.160497e-10
16456.25	1.158214e-10
16462.5	1.163677e-10
16468.75	1.156214e-10
16475	1.161678e-10
16481.25	1.155264e-10
16487.5	1.162417e-10
16493.75	1.159482e-10
16500	1.157687e-10
16506.25	1.16044e-10
16512.5	1.16049e-10
16518.75	1.160432e-10
16525	1.156183e-10
16531.25	1.155735e-10
16537.5	1.156012e-10
16543.75	1.152827e-10
16550	1.155335e-10
16556.25	1.154714e-10
16562.5	1.153881e-10
16568.75	1.15827e-10
16575	1.15264e-10
16581.25	1.157542e-10
16587.5	1.156428e-10
16593.75	1.159225e-10
16600	1.152372e-10
16606.25	1.152087e-10
16612.5	1.15209e-10
16618.75	1.152363e-10
16625	1.154584e-10
16631.25	1.152829e-10
16637.5	1.150773e-10
16643.75	1.153922e-10
16650	1.150097e-10
16656.25	1.153038e-10
16662.5	1.149739e-10
16668.75	1.152435e-10
16675	1.15422e-10
16681.25	1.148696e-10
16687.5	1.150875e-10
16693.75	1.152319e-10
16700	1.148992e-10
16706.25	1.150685e-10
16712.5	1.148132e-10
16718.75	1.14895e-10
16725	1.149501e-10
16731.25	1.147403e-10
16737.5	1.149613e-10
16743.75	1.145261e-10
16750	1.148798e-10
16756.25	1.148412e-10
16762.5	1.147594e-10
16768.75	1.147765e-10
16775	1.146259e-10
16781.25	1.146431e-10
16787.5	1.145928e-10
16793.75	1.145764e-10
16800	1.145471e-10
16806.25	1.145178e-10
16812.5	1.14488e-10
16818.75	1.144581e-10
16825	1.144329e-10
16831.25	1.144007e-10
16837.5	1.143656e-10
16843.75	1.143101e-10
16850	1.144008e-10
16856.25	1.143729e-10
16862.5	1.142844e-10
16868.75	1.14246e-10
16875	1.140654e-10
16881.25	1.141508e-10
16887.5	1.142601e-10
16893.75	1.142166e-10
16900	1.142205e-10
16906.25	1.142793e-10
16912.5	1.141581e-10
16918.75	1.139402e-10
16925	1.138938e-10
16931.25	1.137221e-10
16937.5	1.14134e-10
16943.75	1.14068e-10
16950	1.1352e-10
16956.25	1.140277e-10
16962.5	1.138061e-10
16968.75	1.139997e-10
16975	1.131738e-10
16981.25	1.139332e-10
16987.5	1.135342e-10
16993.75	1.135714e-10
17000	1.137824e-10
17006.25	1.138487e-10
17012.5	1.131489e-10
17018.75	1.139529e-10
17025	1.134197e-10
17031.25	1.132681e-10
17037.5	1.137192e-10
17043.75	1.128172e-10
17050	1.13428e-10
17056.25	1.140265e-10
17062.5	1.13479e-10
17068.75	1.138152e-10
17075	1.135533e-10
17081.25	1.138188e-10
17087.5	1.132554e-10
17093.75	1.135852e-10
17100	1.13e-10
17106.25	1.134108e-10
17112.5	1.136648e-10
17118.75	1.137011e-10
17125	1.130038e-10
17131.25	1.133776e-10
17137.5	1.130743e-10
17143.75	1.132678e-10
17150	1.134055e-10
17156.25	1.127647e-10
17162.5	1.130601e-10
17168.75	1.128249e-10
17175	1.131988e-10
17181.25	1.129779e-10
17187.5	1.129799e-10
17193.75	1.129709e-10
17200	1.129383e-10
17206.25	1.128327e-10
17212.5	1.129435e-10
17218.75	1.12827e-10
17225	1.132102e-10
17231.25	1.12767e-10
17237.5	1.12723e-10
17243.75	1.127325e-10
17250	1.126825e-10
17256.25	1.127427e-10
17262.5	1.126876e-10
17268.75	1.127571e-10
17275	1.126476e-10
17281.25	1.126128e-10
17287.5	1.12591e-10
17293.75	1.125213e-10
17300	1.125225e-10
17306.25	1.125105e-10
17312.5	1.12512e-10
17318.75	1.124551e-10
17325	1.12423e-10
17331.25	1.123949e-10
17337.5	1.124363e-10
17343.75	1.123246e-10
17350	1.12391e-10
17356.25	1.122017e-10
17362.5	1.122372e-10
17368.75	1.124275e-10
17375	1.123983e-10
17381.25	1.121383e-10
17387.5	1.119325e-10
17393.75	1.121177e-10
17400	1.118903e-10
17406.25	1.122145e-10
17412.5	1.119662e-10
17418.75	1.118394e-10
17425	1.119888e-10
17431.25	1.123086e-10
17437.5	1.120289e-10
17443.75	1.120246e-10
17450	1.118799e-10
17456.25	1.123962e-10
17462.5	1.118972e-10
17468.75	1.118559e-10
17475	1.116354e-10
17481.25	1.11952e-10
17487.5	1.119344e-10
17493.75	1.120969e-10
17500	1.116031e-10
17506.25	1.116439e-10
17512.5	1.120034e-10
17518.75	1.118979e-10
17525	1.121679e-10
17531.25	1.114061e-10
17537.5	1.11561e-10
17543.75	1.118584e-10
17550	1.116685e-10
17556.25	1.114695e-10
17562.5	1.113124e-10
17568.75	1.116237e-10
17575	1.11221e-10
17581.25	1.112618e-10
17587.5	1.114284e-10
17593.75	1.115694e-10
17600	1.108247e-10
17606.25	1.11399e-10
17612.5	1.111447e-10
17618.75	1.117201e-10
17625	1.11264e-10
17631.25	1.113602e-10
17637.5	1.112438e-10
17643.75	1.110292e-10
17650	1.113568e-10
17656.25	1.111725e-10
17662.5	1.111281e-10
17668.75	1.110582e-10
17675	1.111543e-10
17681.25	1.109246e-10
17687.5	1.112315e-10
17693.75	1.109567e-10
17700	1.111811e-10
17706.25	1.110026e-10
17712.5	1.110058e-10
17718.75	1.110614e-10
17725	1.10814e-10
17731.25	1.108972e-10
17737.5	1.107302e-10
17743.75	1.10811e-10
17750	1.109305e-10
17756.25	1.108708e-10
17762.5	1.109071e-10
17768.75	1.107534e-10
17775	1.107539e-10
17781.25	1.107201e-10
17787.5	1.107011e-10
17793.75	1.106954e-10
17800	1.106721e-10
17806.25	1.106536e-10
17812.5	1.106134e-10
17818.75	1.106617e-10
17825	1.105926e-10
17831.25	1.104794e-10
17837.5	1.105097e-10
17843.75	1.105084e-10
17850	1.105258e-10
17856.25	1.105694e-10
17862.5	1.104867e-10
17868.75	1.103489e-10
17875	1.102848e-10
17881.25	1.102483e-10
17887.5	1.102341e-10
17893.75	1.106135e-10
17900	1.103471e-10
17906.25	1.102349e-10
17912.5	1.104231e-10
17918.75	1.100812e-10
17925	1.10212e-10
17931.25	1.105289e-10
17937.5	1.100318e-10
17943.75	1.100841e-10
17950	1.099678e-10
17956.25	1.102423e-10
17962.5	1.097997e-10
17968.75	1.100816e-10
17975	1.102088e-10
17981.25	1.098314e-10
17987.5	1.100696e-10
17993.75	1.096781e-10
18000	1.098852e-10
18006.25	1.098962e-10
18012.5	1.097288e-10
18018.75	1.101869e-10
18025	1.100896e-10
18031.25	1.101967e-10
18037.5	1.098555e-10
18043.75	1.097562e-10
18050	1.099591e-10
18056.25	1.094616e-10
18062.5	1.097435e-10
18068.75	1.094678e-10
18075	1.092994e-10
18081.25	1.09555e-10
18087.5	1.096516e-10
18093.75	1.098397e-10
18100	1.094371e-10
18106.25	1.094679e-10
18112.5	1.096031e-10
18118.75	1.095262e-10
18125	1.095892e-10
18131.25	1.098431e-10
18137.5	1.094111e-10
18143.75	1.095901e-10
18150	1.097512e-10
18156.25	1.096066e-10
18162.5	1.092821e-10
18168.75	1.093944e-10
18175	1.093806e-10
18181.25	1.092979e-10
18187.5	1.094861e-10
18193.75	1.093838e-10
18200	1.092317e-10
18206.25	1.093052e-10
18212.5	1.093475e-10
18218.75	1.091186e-10
18225	1.092033e-10
18231.25	1.092364e-10
18237.5	1.091068e-10
18243.75	1.091761e-10
18250	1.091424e-10
18256.25	1.090266e-10
18262.5	1.090617e-10
18268.75	1.091088e-10
18275	1.090432e-10
18281.25	1.090478e-10
18287.5	1.09029e-10
18293.75	1.089999e-10
18300	1.0899e-10
18306.25	1.089569e-10
18312.5	1.089453e-10
18318.75	1.089262e-10
18325	1.089956e-10
18331.25	1.08795e-10
18337.5	1.088295e-10
18343.75	1.087347e-10
18350	1.086859e-10
18356.25	1.088948e-10
18362.5	1.085412e-10
18368.75	1.087441e-10
18375	1.088617e-10
18381.25	1.085114e-10
18387.5	1.08682e-10
18393.75	1.087574e-10
18400	1.086402e-10
18406.25	1.086354e-10
18412.5	1.08481e-10
18418.75	1.087061e-10
18425	1.087083e-10
18431.25	1.087063e-10
18437.5	1.083976e-10
18443.75	1.086034e-10
18450	1.085698e-10
18456.25	1.085248e-10
18462.5	1.083759e-10
18468.75	1.084667e-10
18475	1.086935e-10
18481.25	1.084206e-10
18487.5	1.08312e-10
18493.75	1.083444e-10
18500	1.082269e-10
18506.25	1.080956e-10
18512.5	1.081668e-10
18518.75	1.080898e-10
18525	1.082731e-10
18531.25	1.082136e-10
18537.5	1.081618e-10
18543.75	1.086421e-10
18550	1.079178e-10
18556.25	1.082171e-10
18562.5	1.081427e-10
18568.75	1.080142e-10
18575	1.081333e-10
18581.25	1.079959e-10
18587.5	1.078674e-10
18593.75	1.085126e-10
18600	1.08185e-10
18606.25	1.086382e-10
18612.5	1.077404e-10
18618.75	1.079414e-10
18625	1.082979e-10
18631.25	1.080496e-10
18637.5	1.078815e-10
18643.75	1.079262e-10
18650	1.080935e-10
18656.25	1.078371e-10
18662.5	1.079011e-10
18668.75	1.08009e-10
18675	1.078602e-10
18681.25	1.078449e-10
18687.5	1.077726e-10
18693.75	1.077745e-10
18700	1.07589e-10
18706.25	1.077103e-10
18712.5	1.077462e-10
18718.75	1.07381e-10
18725	1.07797e-10
18731.25	1.07504e-10
18737.5	1.076838e-10
18743.75	1.077786e-10
18750	1.075646e-10
18756.25	1.07693e-10
18762.5	1.076244e-10
18768.75	1.075213e-10
18775	1.075632e-10
18781.25	1.075648e-10
18787.5	1.07544e-10
18793.75	1.075207e-10
18800	1.07515e-10
18806.25	1.075198e-10
18812.5	1.074971e-10
18818.75	1.074473e-10
18825	1.075049e-10
18831.25	1.074143e-10
18837.5	1.073389e-10
18843.75	1.072899e-10
18850	1.073219e-10
18856.25	1.072313e-10
18862.5	1.073308e-10
18868.75	1.07183e-10
18875	1.071126e-10
18881.25	1.074282e-10
18887.5	1.072676e-10
18893.75	1.073226e-10
18900	1.070157e-10
18906.25	1.072853e-10
18912.5	1.07254e-10
18918.75	1.070609e-10
18925	1.069854e-10
18931.25	1.072514e-10
18937.5	1.064561e-10
18943.75	1.073062e-10
18950	1.067442e-10
18956.25	1.070711e-10
18962.5	1.071543e-10
18968.75	1.069496e-10
18975	1.070745e-10
18981.25	1.069182e-10
18987.5	1.070543e-10
18993.75	1.064999e-10
19000	1.06729e-10
19006.25	1.068935e-10
19012.5	1.067421e-10
19018.75	1.065168e-10
19025	1.069641e-10
19031.25	1.066609e-10
19037.5	1.070187e-10
19043.75	1.069622e-10
19050	1.066469e-10
19056.25	1.069268e-10
19062.5	1.065131e-10
19068.75	1.067889e-10
19075	1.067042e-10
19081.25	1.062803e-10
19087.5	1.064428e-10
19093.75	1.068472e-10
19100	1.065086e-10
19106.25	1.065118e-10
19112.5	1.068193e-10
19118.75	1.062554e-10
19125	1.065004e-10
19131.25	1.069236e-10
19137.5	1.06534e-10
19143.75	1.066514e-10
19150	1.066387e-10
19156.25	1.063886e-10
19162.5	1.064923e-10
19168.75	1.066548e-10
19175	1.066515e-10
19181.25	1.061992e-10
19187.5	1.063384e-10
19193.75	1.064296e-10
19200	1.06372e-10
19206.25	1.062399e-10
19212.5	1.063495e-10
19218.75	1.06417e-10
19225	1.063135e-10
19231.25	1.063042e-10
19237.5	1.063443e-10
19243.75	1.063274e-10
19250	1.061907e-10
19256.25	1.062186e-10
19262.5	1.061838e-10
19268.75	1.061812e-10
19275	1.06197e-10
19281.25	1.061677e-10
19287.5	1.061462e-10
19293.75	1.06132e-10
19300	1.060798e-10
19306.25	1.060796e-10
19312.5	1.061141e-10
19318.75	1.060999e-10
19325	1.061431e-10
19331.25	1.060066e-10
19337.5	1.060153e-10
19343.75	1.059446e-10
19350	1.059017e-10
19356.25	1.060053e-10
19362.5	1.059347e-10
19368.75	1.062238e-10
19375	1.058277e-10
19381.25	1.060922e-10
19387.5	1.057786e-10
19393.75	1.060783e-10
19400	1.057201e-10
19406.25	1.05593e-10
19412.5	1.059141e-10
19418.75	1.054845e-10
19425	1.05642e-10
19431.25	1.054706e-10
19437.5	1.057484e-10
19443.75	1.056156e-10
19450	1.059317e-10
19456.25	1.055291e-10
19462.5	1.05915e-10
19468.75	1.055875e-10
19475	1.057355e-10
19481.25	1.055907e-10
19487.5	1.05523e-10
19493.75	1.054467e-10
19500	1.053736e-10
19506.25	1.053476e-10
19512.5	1.050687e-10
19518.75	1.054516e-10
19525	1.052504e-10
19531.25	1.053812e-10
19537.5	1.053366e-10
19543.75	1.056887e-10
19550	1.054141e-10
19556.25	1.0541e-10
19562.5	1.05364e-10
19568.75	1.047457e-10
19575	1.052226e-10
19581.25	1.054841e-10
19587.5	1.057665e-10
19593.75	1.051644e-10
19600	1.054391e-10
19606.25	1.055971e-10
19612.5	1.050426e-10
19618.75	1.055726e-10
19625	1.052118e-10
19631.25	1.053194e-10
19637.5	1.049012e-10
19643.75	1.053315e-10
19650	1.05372e-10
19656.25	1.053435e-10
19662.5	1.050981e-10
19668.75	1.048118e-10
19675	1.052471e-10
19681.25	1.048762e-10
19687.5	1.051019e-10
19693.75	1.050694e-10
19700	1.048294e-10
19706.25	1.050107e-10
19712.5	1.049698e-10
19718.75	1.050246e-10
19725	1.051482e-10
19731.25	1.048657e-10
19737.5	1.050561e-10
19743.75	1.050221e-10
19750	1.050016e-10
19756.25	1.049927e-10
19762.5	1.049034e-10
19768.75	1.049659e-10
19775	1.049195e-10
19781.25	1.048957e-10
19787.5	1.048678e-10
19793.75	1.048581e-10
19800	1.048633e-10
19806.25	1.048728e-10
19812.5	1.048884e-10
19818.75	1.04795e-10
19825	1.048285e-10
19831.25	1.048466e-10
19837.5	1.049201e-10
19843.75	1.046496e-10
19850	1.046424e-10
19856.25	1.047449e-10
19862.5	1.04672e-10
19868.75	1.047318e-10
19875	1.046279e-10
19881.25	1.048048e-10
19887.5	1.044744e-10
19893.75	1.046004e-10
19900	1.043578e-10
19906.25	1.048004e-10
19912.5	1.045549e-10
19918.75	1.042647e-10
19925	1.046198e-10
19931.25	1.047546e-10
19937.5	1.042498e-10
19943.75	1.042648e-10
19950	1.041741e-10
19956.25	1.044393e-10
19962.5	1.043662e-10
19968.75	1.046413e-10
19975	1.042747e-10
19981.25	1.041775e-10
19987.5	1.042991e-10
19993.75	1.043486e-10
20000	1.045755e-10
